-528-
108

Page

=
>
6
3
=
=
=
o
a
8

6-7-70
2.5 cm? x 8 mm Ge(Li)

1 gicm? Poly
10cm
56-131-1

82)
I

shei-x a9

104

3 3S

puosas/jauueyo/sjunog

 

10'

10°

4000

3600

3200

2800

2400

2000

1600

1200

800

400

Channel Number

 

z
2
=
eo
2
=
3
Oo
Sm)
3
2
S
e

 
Page -529-

131Ba(11 day) Decay Scheme yell day 0
+

1131
0-1370/f ba

 

 

 

 

 

 

 

 

 

 

   
   

 

“ To
HL 919.57 Ho.0097%
rc
lo Hil
| no Ho.54°
3/24 HH qe 1 e968. 49 1 f
620.13 9%
TO oe 585.044
: S HHH s
NR
© QO 9,
—_ o + BS }
oO eo So lo }
© tThoOoT | or 9,
3/2+ o® at De + 9 ow 5 6.094-41.0
N S t+
52+ sS Bo 10 aay " 133.62], 4,
1/2+ soy vg CAv © AV oo 138-801 92%
4 oy A A
= ©

ee Oe _ qa
= | Table of Contents |
ee —
Page -530-

 

GAMMA-RAY ENERGIES AND INTENSITIES

 

 

 

 

 

 

 

 

 

 

 

 

 

 

 

 

 

 

 

 

 

 

 

 

 

 

 

 

 

 

 

 

 

 

 

 

 

 

 

 

 

 

 

 

 

 

 

 

 

 

 

 

 

 

 

 

 

 

 

 

 

 

 

 

 

 

 

 

 

 

 

Nuclide: 13'Ba E,, OE, |, Gly - 1998 ENSDF Data Half Life: 11.50(6) day
Detector: 2.5 cm? x 8 mm Ge (Li) Method of Production: 130Ba(n,y)

E, (keV) oE, 1, (rel) ly (%) oly s E, (keV) oE, \, (rel) ly (%) oly s
54.889 0.005 0.1025 0.0028 | 4 546.28 0.09 0.0035 0.0003 | 4
78.733 0.003 0.735 0.019 4 550.39 0.15 0.0022 0.0005 | 4
82.58 0.09 0.014 0.005 4 562.87 0.13 0.0036 0.0005 | 4
92.284 0.003 2.0 0.585 0.010 4 572.686 0.015 0.32 0.1563 0.0016 | 4
123.805 0.003 62.1 28.97 0.26 1 585.041 0.015 2.75 1.193 0.015 2
128.09 0.14 0.0140 0.0009 (| 4 596.5 0.3 0.0016 0.0005 [4
133.609 0.007 4.86 212 0.08 3 620.111 0.017 4.06 1.437 0.015 1
137.36 0.04 0.0374 0.0014 | 4 657.6 0.3 0.0035 0.0005 | 4
157.151 0.009 0.47 0.176 0.006 4 674.430 0.020 0.39 0.1320 0.0015 | 4
216.078 0.008 | 41.66 19.66 0.25 1 696.490 0.020 0.44 0.145 0.004 4
239.629 0.008 5.76 2.410 0.026 3 703.44 0.08 0.0064 0.0004 4
246.885 0.012 1.66 0.632 0.010 4 745.5 0.4 0.0014 0.0003 4
249.432 0.008 6.22 2.813 0.026 3 757.00 0.20 0.0005 0.0001 4
294.515 0.020 0.62 0.166 0.003 4 785.92 0.09 0.0023 0.0007 4
351.196 0.024 1.0 0.091 0.003 4 795.85 0.08 0.0007 0.0001 4
369.12 0.13 0.014 0.003 4 797.45 0.06 0.0360 0.0009 4
373.246 0.011 313 14.04 0.20 1 831.62 0.03 0.45 0.2279 0.0021 3
390.05 047 0.0019 0.0005 [4 840.9 0.4 9.0019 9.0009_| 4
404.046 0.017 3.07 1.310 oo | 2 914.070 9.020 9.0463 0.0010 | 4
427.570 0.017 0.64 | 0.0955 0.0010 | 4 919.60 0.09 9.0089 9.0005__| 4
451.418 0015 0.0407 00010 | 4 923.870 0.020 1.59 0.721 0.010 3
461.258 0.024 0.056 0.009 4 954.61 0.03 0.0328 0.0005 | 4
462.68 0.05 0.047 0.009 4 968.94 0.03 0.12 0.0365 0.0019 | 4
4742 03 0.0023 0.00061 4 1037.0 0.4 0.0005 0.0001 4
480.407 0.013 0.82 0.328 0.003 3 1046.4 0.3 0.090 0.007 4
486.522 0.012 4.34 2.087 0.017 2 1047.60 0.03 2.89 1.324 0.015 1
496.326 0.013 100. 46.80 0.20 1 1125.97 0.16 0.0027 0.0005 | 4
5064 04 0.0019 000051 4 1170.53 0.14 0.0016 0.0002 | 4
5175 04 0.0014 0.00051 4 1208.43 0.12 0.0017 0.0002 | 4
5337 04 0.0014 000051 4 1218.30 0.15 0.0005 0.0001 4
1341.88 0.15 0.0011 0.0001 4

 

 

 

 

 

 

 

 

Table of Contents

   
