Page -630-

 

     

107 54EuU(8.5 yr.)
2-16-67
2.5 cm? x 8 mm Ge(Li)
0.2 glcm? Be
2cm

108 63-154-1

105
B 104
3
oO
o
QD
Oo
<
= 10°
co
9
£
e
5
3
© 102

101

10°

107

0 200 400 600 800 000 200 400 600 800 2000
2000 2200 2400 2600 3000 3200 3400 3600 3800 4000

Channel Number

   

Table of Contents
Page -631-
154Fu(8.5 yr.) Decay Scheme
8.5 yr.

154 Q=1968.4
ésEU - =99.98%

  
    

Q=717.3
EC=0.02%

        

   

e

co
"
Rn le 154
25m

996
815

© o
1Gd -

64

 

a — a =o
BR Table of Contents |.
Page -632-

 

GAMMA-RAY ENERGIES AND INTENSITIES (page 1 of 3)

 

 

 

 

 

 

 

 

 

 

 

 

 

 

 

 

 

 

 

 

 

 

 

 

 

 

 

 

 

 

 

 

 

 

 

 

 

 

 

 

 

 

 

 

 

 

 

 

 

 

 

 

 

 

 

 

 

 

 

 

 

 

 

 

 

 

 

 

 

 

 

 

 

 

 

 

 

Nuclide: 154Eu Ey, OE,, ly Gly - 1998 ENSDF Data Half Life: 8.593(4) yr.
Detector: 2.5 cm? x 8 mm Ge (Li) Method of Production: 153Eu(n,7)

E, (keV) oE, \, (rel) ly (%) oly s E, (keV) oE, \, (rel) ly (%) oly s
58.40 0.0038 0.0004 4 308.2 0.0024 0.0006 4
80.40 0.0030 0.0008 4 312.3 0.0186 0.0014 4
81.990 0.020 0.0034 0.0032 4 315.4 0.0073 0.0014 4
82.10 0.0031 0.0020 4 320.0 1.0 0.0010 0.0007 4
123.071 0.001 100. 40.6 0.4 1 322.01 0.05 0.0661 0.0018 4
125.4 0.0070 0.0021 4 329.6 0.0091 0.0005 4
129.5 0.0136 0.0020 4 346.72 0.05 0.0290 0.0010 4
131.58 0.05 0.0111 0.0005 4 368.2 0.00297 0.00014 | 4
134.8 0.0072 0.0004 4 370.7 0.0056 0.0010 4
146.05 0.05 1.03 0.0259 0.0010 4 375.2 0.5 0.0020 0.0006 4
156.2 0.0098 0.0004 4 382.00 0.05 0.0099 0.0004 4
159.9 0.0010 0.0005 4 397.1 0.0287 0.0010 4
162.1 0.0011 0.0004 4 401.258 0.014 0.1900 0.0021 4
165.7 0.0025 0.0004 4 403.55 0.05 0.0262 0.0070 4
180.7 0.0040 0.0005 4 414.3 0.00497, 0.00024 4
184.68 0.08 0.0042 0.0030 4 419.4 0.0035 0.0014 4
184.7 0.0037 0.0007 4 422.0 0.0022 0.0008 4
188.252 0.008 0.51 0.239 0.005 4 435.9 0.0038 0.0010 4
195.5 0.5 0.0021 0.0010 4 444.490 0.006 1.83 0.562 0.006 4
197.0 0.00158 0.00017 4 463.9 0.00427, 0.00024 4
209.4 04 0.0025 0.0004 4 467.84 0.05 0.0605 0.0018 4
219.4 0.0023 0.0005 4 478.27 0.04 0.82 0.2250 0.0018 4
229.0 05 0.0024 0.0006 4 480.6 0.00483 0.00028 | 4
232.01 0.05 0.0237 0.0009 4 483.7 0.00497 0.00028 | 4
237.7 0.0063 0.0024 4 484.6 0.00395 0.00021 4
247.930 0.008 16.8 6.91 0.05 2 488.3 0.0070 0.0024 4
260.2 0.0022 0.0006 4 506.5 0.0063 0.0010 4
267.5 0.007 0.008 4 510.6 0.059 0.007 4
267.5 0.007 0.008 4 512.0 0.031 0.007 4
269.8 0.0072 0.0008 4 518.00 0.05 0.0472 0.0021 4
274.0 0.5 0.00388 0.00018 | 4 532.0 0.0070 0.0024 4
279.9 0.00297 0.00014 | 4 532.8 0.0063 4
290.0 0.00336 0.00018 4 545.6 0.0144 0.0014 4
295.7 0.00238 0.00014 4 557.58 0.04 0.268 0.003 4
296.0 0.0014 0.0010 4 569.2 0.0100 0.0008 4
301.3 0.0102 0.0004 4 582.01 0.04 2.83 0.889 0.009 4
305.1 0.0175 0.0007 4 591.762 0.005 13.0 4.96 0.04 3
597.5 0.0055 0.0003 4

 

 

 

 

 

 

 

 

 

 

 

 

 

 

 

 

Table of Contents

   
Page -633-

 

GAMMA-RAY ENERGIES AND INTENSITIES (page 2 of 3)

 

 

 

 

 

 

 

 

 

 

 

 

 

 

 

 

 

 

 

 

 

 

 

 

 

 

 

 

 

 

 

 

 

 

 

 

 

 

 

 

 

 

 

 

 

 

 

 

 

 

 

 

 

 

 

 

 

 

 

 

 

 

 

 

 

 

 

 

 

 

 

 

 

 

 

 

Nuclide: 154Eu Ey, OE,, ly Gly - 1998 ENSDF Data Half Life: 8.593(4) yr.
Detector: 2.5 cm? x 8 mm Ge (Li) Method of Production: 153Eu(n,7)
E, (keV) oEy 1, (el) ly (%) oly s E, (keV) oE, 1, (rel) ly (%) oly s
598.3 0.0062 0.0007 [| 4 7023.0 0 0.0066 0.0018 [4
600.0 0.00046 4 1033. 0.0118 0.0006 [4
602.81 0.05 0.0336 00014 [4 1047.40, 0.10 0.0497 0.0024 [4
613.26 0.05 0.093 0.004 4 7049.40, 0.10 0.0172 0.0007 [ 4
620.5 0.0097 0.0005 [| 4 1072. 0.0035 0.0014 [4
625.254 0.007 0.318 0.004 4 1110. 0.0028 0.0021 4
642.4 0.0045 0.0014 | 4 1118.30 0.10 0.108 0.014 4
649.44 0.05 0.078 0.003 4 1124. 0.0069 0.0010 [4
650.6 0.0099 0.0004 [4 17128.560 0.008 153 0.318 0.004 4
664.68 0.05 0.0287 0.0010 [4 1136. 0.0074 0.0010 [4
668.9 0.0133 0.0018 | 4 1140.71 0.009 0.2355 0.0021 4
676.600 0.012 0.157 0.007 4 1153.1 05 0.0108 0.0024 [4
692.425 0.004 491 1.792 0.015 3 161. 0.0437 0.0018 | 4
715.76 0.05 0.188 0.009 4 1170.0 05 0.0036 0.0009 | 4
723.305 0.005 543 20.11 0.15 2 1189. 0.093 0.003 4
737.6 0.0063 0.0024 [4 1217. 0.0034 0.0010 [4
756.804 0.005 128 454 0.04 3 1232. 0.008 0.004 4
774A 0.008 0.004 4 1241.60 0.20 0.133 0.005 4
790.1 0.0705 0.0027 4 246.150 0.009 2.80 0.864 0.007 3
800.3 0.032 0.005 4 1274.436 0.006 95.0 35.0 0.3 1
815.53 0.06 174 0.513 0.005 4 7290. 0.0248 0.0024 | 4
830.3 0.008 0.003 4 7292.00 0.20 0.0127 0.0005 | 4
845.39 0.05 1.90 0.588 0.005 4 7295.50 0.20 0.0091 0.0006 | 4
850.64 0.05 0.242 0.004 4 1316. 0.017 0.004 4
873.190 0.005 31.9 12.20 0.08 2 7387.0 05 0.0792 0.00141 4
880.61 0.03 0.081 0.004 4 7400. 0.0031 0.000671 a
892.781 0.009 0.515 0.005 4 1408.40 0.20 0.0231 0.0018 4
898.4 0.0020 0.0005 | 4 1415.0 05 0.00399 | 0.000217 | 4
904.076 0.006 2.48 0.893 0.007 4 7418.60 0.20 0.0108 0.0014 | 4
906.1 0.0118 0.0006 | 4 1419.0 03 0.00196 | 0.00010 | 4
919.2 0.0122 0.0006 | 4 1425.6 06 0.0072 0.0005 | 4
924.56 0.07 0.0619 0.0021 4 7490. 0.0029 0.000371 a
928.4 0.0045 0.0021 4 1494.048 0.009 1.59 0.700 0.008 3
981.3 0.0084 0.0014 4 1510.0 05 0.0048 0.0008 4
984.5 0.0094 0.0018 | 4 1522.0 1.0 0.00060 | 0.00028 | 4
996.262 0.006 30.26 70.53 0.07 2 15314 03 0.0060 0.00041 4
1004.725 0.007 50.49 17.91 0.12 2 7537.82 0.03 0.0528 0.0018 | 4
7012.80 0.20 0.0028 0.0028 4

 

 

 

 

 

 

 

 

 

 

 

 

 

 

 

 

 

Table of Contents

   
Page -634-

 

GAMMA-RAY ENERGIES AND INTENSITIES (page 3 of 3)

 

 

 

 

 

 

 

 

 

 

 

 

 

 

 

 

 

Nuclide: 154Eu Ey, OE,, ly Gly - 1998 ENSDF Data Half Life: 8.593(4) yr.
Detector: 2.5 cm? x 8 mm Ge (Li) Method of Production: 153Eu(n,y)
E, (keV) OE, Ly (rel) 1, (%) Oly Ss E, (keV) OE, 1, (rel) 1, (%) oly Ss
1554. 0.0017 0.0005 | 4 1773.0 1.0 0.00032 | 0.00014 | 4
1596.495 0.018 5.35 1.788 0.015 1 1838.0 0.5 0.00084 [0.00018 | 4
1667.30 0.20 0.00192 0.00024 [4 1895.0 1.0 0.00063 0.00018 | 4
1674. 0.00172 | 0.00024 | 4
1717. 0.00060 | 0.00024 | 4

 

 

 

 

 

 

 

 

Table of Contents

   
