Page -566-
10° 140Pr(3.3 min.)

5-12-70
4.55 cm? x 8 mm Ge(Li)
no absorber
unknown source distance
59-140-1

”
>.
S
.
x

x
a

oO

Pb K x-ray:

104

108

10?

Counts/Channel/Second

10°

 

10°
0 400 800 1200 1600 2000 2400 2800 3200 3600 4000

Channel Number

Table of Contents

   
Page -567-
“40Pr(3.3 min.) Decay Scheme
3.3 min.
1+ 0

 

 

 

GAMMA-RAY ENERGIES AND INTENSITIES

 

Nuclide: 140Pr

Detector: 4.55 cm2 x 8 mm Ge (Li)

Half Life: 3.39(1) min.

Method of Production: 141 Pr (y,n)

 

Ann.

Table of Contents

 

 

 

 

 

 

 

 

 

 

 

 

 

 

 

 

 

 

 

 

 

E, (keV) cE, |, (rel) 1, (%) ol Ss
306.9 0.5 0.15 0.019 4
511.006 100.6 1
751.8 0.5 0.032 0.004 4
925.3 0.5 0.026 0.003 4
1420.7 0.5 0.0065 0.0011 4
1596.1 0.2 100 0.5 0.04 1
1903.5 4
2347.8 0.5 0.0072 0.0009 4
2521.4 0.5 0.013 0.0018 4
2547.5 0.7 0.0002 0.0001 4
2900 1 0.0002 0.0001 4
3016.3 1.2 4
3119 1.5 0.0009 0.0001 4
3320 2 0.0001 4
Ey oE,, ls oly - 1998 ENSDF Data

 

 
