Page -692-
10°

108

104

108

Counts/Channel/Second

10?

10°

10°

 

Tm K
x-rays

63

400

800

1200

306/307

sum (197 + x-ray)

nN
o
—

240

sum (177 + x-ray)
ELTA

4

1600 2000

Channel Number

Table of Contents

2400

2800

3200

'Yb(32 day)

4-8-69
4.55 cm? x 8 mm Ge(Li)
no absorber
5cm
70-169-1

 

3600 4000

 
Page -693-
169Vb(32 day) Decay Scheme

 

 

 

 

 

 

 

 

 

 

 

 

 

 

Q=909
(Z/2) +: 878.35
bye)

52+ © 781.80
(Z/2)+ v 718.89

NR

°

o
3/24 v © 570.83.

3
3/2- v % 474.97
9/2- | ~) 472.88
(9/24) 433.52
gtr f
Z2- cyt © 379.27
(5i2-) v ‘| 345,03 J-0.01
"i 316.15 fa
NR
ro RM
es [eos
724 v v ry N D138 93
5/24 o "118.19
o g t
3/2 v = 8.41
stable 169
e91m

 

qe — oe =P
BR Table of Contents |.
Page -694-

 

GAMMA-RAY ENERGIES AND INTENSITIES (page 1 of 2)

 

 

 

 

 

 

 

 

 

 

 

 

 

 

 

 

 

 

 

 

 

 

 

 

 

 

 

 

 

 

 

 

 

 

 

 

 

 

 

 

 

 

 

 

 

 

 

 

 

 

 

 

 

 

 

 

 

 

 

 

 

 

 

 

 

 

 

 

 

 

 

 

 

Nuclide: 16°Yb E,, OEy, |, Gly - 1998 ENSDF Data Half Life: 32.026(5) day
Detector: 4.55 cm? x 8 mm Ge (Li) Method of Production: 169Tm(p,n)

E, (keV) oE, \, (rel) ly (%) oly s E, (keV) oE, \, (rel) a) oly s
8.410 0.333 0.015 4 226.3 07 0.0003 0.0002 (| 4
20.752 0.009 0.190 0.015 4 228.71 0.05 0.0004 4
42.760 0.251 0.004 4 240.332 0.003 0.1138 0.0024 | 4
45.940 0.0107 0.0002 | 4 261.079 4.93 1.71 0.03 1
50.610 0.537 0.009 4 291.190 0.011 0.0043 0.0002, | 4
50.855 0.537 0.009 4 294.54 0.11 0.0010 0.0003 4
51.510 0.0179 0.0003 | 4 301.732 0.0047 0.0001 4

pL 83.012 164 2.15 0.04 1 306.830 0.179 0.003
63.121 : 44.2 1.0 Di 307.520 29.8 0.501 0.008 1

65.860 0.0104 0.0002 | 4 307.738 10.05 0.18
72.028 0.0036 0.0001 4 333.965 0.013 0.0018 0.0001 4
85.093 0.0029 4 336.620 0.004 0.0091 0.0002 | 4
93.615 6.77 2.61 0.06 3 356.74 0.05 0.0001 4
pL__98:704 0.0021 4 370.856 0.008 0.0072 0.0006 | 4
95.854 0.0021 379.286 0.018 0.0012 0.0002, | 4
98.005 0.0018 4 386.673 0.013 0.0003 4
101.405 0.0072 0.0001 4 452.62 0.08 4
105.19 0.10 0.0026 0.0008 4 464.72 0.09 4
109.780 46.4 17.5 0.3 1 465.657 0.006 0.0002 4
pL__113.620 0.0107 0.0002 |, 466.562 0.008 4
113.976 0.0086 0.0001 474.973 0.009 0.0002 4
pL_ 117.377 0.019 5.46 0.0397 0.0022 |, 494.360 0.008 0.0015 4
118.190 1.87 0.04 500.35 0.10 4
129.942 0.537 0.009 507.8 0.3 4
Ol 430.524 S12 11.31 0.21 1 515.104 0.006 0.0041 0.0001 4
156.725 0.011 0.0100 0.0004 | 4 528.572 0.010 0.0002 4
173.879 0.0029 4 546.16 0.22 4
177.214 61.5 22.2 0.4 1 562.413 0.012 0.0001 4
193.15 0.05 0.0074 0.0010 4 570.89 0.03 0.0001 4
197.958 100. 35.8 07 1 579.854 0.005 0.0019 4
199.772 0.0322 0.0005 4 600.607 0.008 0.0011 4
205.99 0.06 0.0041 0.0001 4 624.885 0.004 0.0049 0.0002 | 4
213.936 0.017 0.0029 0.0002 | 4 633.32 0.10 4

 

 

 

 

 

 

 

 

 

 

 

 

 

 

 

 

Table of Contents

   
Page -695-
GAMMA-RAY ENERGIES AND INTENSITIES (page 2 of 2)

 

 

 

 

 

 

 

 

 

Nuclide: 18° b Ey, OE, ly Gly - 1998 ENSDF Data Half Life: 32.026(5) day

Detector: 4.55 cm? x 8 mm Ge (Li) Method of Production: 169Tm(p,n)
E, (keV) oE, |, (rel) 1, (%) oly S E, (keV) oE, |, (rel) 1, (%) oly Ss
642.877 0.009 0.0001 4 739.42 0.11 4
663.603 0.007 0.0002 4 760.24 0.24 4
693.46 0.08 4 773.390 0.014 0.0002 4
710.358 0.015 4 781.64 0.08 4

 

 

 

 

 

 

 

 

 

 

 

 

 

 

 

 

 

Table of Contents

   
